Nr. of detectors, Nr. of user table parameter
1010    0
Det.no  Delta    Len2   Code     2theta
1        0.0   -1.8270    0     180.000
2        0.0    3.6000    0       0.001
3        0.0    1.0115    1     171.128
4        0.0    1.0041    1     170.826
5        0.0    1.0115    1     170.525
6        0.0    1.0041    1     170.223
7        0.0    1.0115    1     169.921
8        0.0    1.0041    1     169.619
9        0.0    1.0115    1     169.317
10       0.0    1.0041    1     169.015
11       0.0    1.0115    1     168.714
12       0.0    1.0041    1     168.412
13       0.0    1.0115    1     168.110
14       0.0    1.0041    1     167.808
15       0.0    1.0115    1     167.506
16       0.0    1.0041    1     167.204
17       0.0    1.0115    1     166.903
18       0.0    1.0041    1     166.601
19       0.0    1.0115    1     166.299
20       0.0    1.0041    1     165.997
21       0.0    1.0115    1     165.695
22       0.0    1.0041    1     165.393
23       0.0    1.0041    1     165.092
24       0.0    1.0041    1     165.092
25       0.0    1.0115    1     164.790
26       0.0    1.0115    1     164.790
27       0.0    1.0041    1     164.488
28       0.0    1.0041    1     164.488
29       0.0    1.0115    1     164.186
30       0.0    1.0115    1     164.186
31       0.0    1.0041    1     163.884
32       0.0    1.0041    1     163.884
33       0.0    1.0115    1     163.582
34       0.0    1.0115    1     163.582
35       0.0    1.0041    1     163.281
36       0.0    1.0041    1     163.281
37       0.0    1.0115    1     162.979
38       0.0    1.0115    1     162.979
39       0.0    1.0041    1     162.677
40       0.0    1.0041    1     162.677
41       0.0    1.0115    1     162.375
42       0.0    1.0115    1     162.375
43       0.0    1.0041    1     162.073
44       0.0    1.0041    1     162.073
45       0.0    1.0115    1     161.771
46       0.0    1.0115    1     161.771
47       0.0    1.0041    1     161.470
48       0.0    1.0041    1     161.470
49       0.0    1.0115    1     161.168
50       0.0    1.0115    1     161.168
51       0.0    1.0041    1     160.866
52       0.0    1.0041    1     160.866
53       0.0    1.0115    1     160.564
54       0.0    1.0115    1     160.564
55       0.0    1.0041    1     160.262
56       0.0    1.0041    1     160.262
57       0.0    1.0115    1     159.960
58       0.0    1.0115    1     159.960
59       0.0    1.0041    1     159.659
60       0.0    1.0041    1     159.659
61       0.0    1.0115    1     159.357
62       0.0    1.0115    1     159.357
63       0.0    1.0041    1     159.055
64       0.0    1.0041    1     159.055
65       0.0    1.0115    1     158.753
66       0.0    1.0115    1     158.753
67       0.0    1.0041    1     158.451
68       0.0    1.0041    1     158.451
69       0.0    1.0115    1     158.149
70       0.0    1.0115    1     158.149
71       0.0    1.0041    1     157.848
72       0.0    1.0041    1     157.848
73       0.0    1.0115    1     157.546
74       0.0    1.0115    1     157.546
75       0.0    1.0041    1     157.244
76       0.0    1.0041    1     157.244
77       0.0    1.0115    1     156.942
78       0.0    1.0115    1     156.942
79       0.0    1.0041    1     156.640
80       0.0    1.0041    1     156.640
81       0.0    1.0115    1     156.338
82       0.0    1.0115    1     156.338
83       0.0    1.0041    1     156.037
84       0.0    1.0041    1     156.037
85       0.0    1.0115    1     155.735
86       0.0    1.0115    1     155.735
87       0.0    1.0041    1     155.433
88       0.0    1.0041    1     155.433
89       0.0    1.0115    1     155.131
90       0.0    1.0115    1     155.131
91       0.0    1.0041    1     154.829
92       0.0    1.0041    1     154.829
93       0.0    1.0115    1     154.527
94       0.0    1.0115    1     154.527
95       0.0    1.0041    1     154.226
96       0.0    1.0041    1     154.226
97       0.0    1.0115    1     153.924
98       0.0    1.0115    1     153.924
99       0.0    1.0041    1     153.622
100      0.0    1.0041    1     153.622
101      0.0    1.0115    1     153.320
102      0.0    1.0115    1     153.320
103      0.0    1.0041    1     153.018
104      0.0    1.0041    1     153.018
105      0.0    1.0115    1     152.717
106      0.0    1.0115    1     152.717
107      0.0    1.0041    1     152.415
108      0.0    1.0041    1     152.415
109      0.0    1.0115    1     152.113
110      0.0    1.0115    1     152.113
111      0.0    1.0041    1     151.811
112      0.0    1.0041    1     151.811
113      0.0    1.0115    1     151.509
114      0.0    1.0115    1     151.509
115      0.0    1.0041    1     151.207
116      0.0    1.0041    1     151.207
117      0.0    1.0115    1     150.906
118      0.0    1.0115    1     150.906
119      0.0    1.0041    1     150.604
120      0.0    1.0041    1     150.604
121      0.0    1.0115    1     150.302
122      0.0    1.0115    1     150.302
123      0.0    1.0115    1     171.128
124      0.0    1.0041    1     170.826
125      0.0    1.0115    1     170.525
126      0.0    1.0041    1     170.223
127      0.0    1.0115    1     169.921
128      0.0    1.0041    1     169.619
129      0.0    1.0115    1     169.317
130      0.0    1.0041    1     169.015
131      0.0    1.0115    1     168.714
132      0.0    1.0041    1     168.412
133      0.0    1.0115    1     168.110
134      0.0    1.0041    1     167.808
135      0.0    1.0115    1     167.506
136      0.0    1.0041    1     167.204
137      0.0    1.0115    1     166.903
138      0.0    1.0041    1     166.601
139      0.0    1.0115    1     166.299
140      0.0    1.0041    1     165.997
141      0.0    1.0115    1     165.695
142      0.0    1.0041    1     165.393
143      0.0    1.0041    1     165.092
144      0.0    1.0041    1     165.092
145      0.0    1.0115    1     164.790
146      0.0    1.0115    1     164.790
147      0.0    1.0041    1     164.488
148      0.0    1.0041    1     164.488
149      0.0    1.0115    1     164.186
150      0.0    1.0115    1     164.186
151      0.0    1.0041    1     163.884
152      0.0    1.0041    1     163.884
153      0.0    1.0115    1     163.582
154      0.0    1.0115    1     163.582
155      0.0    1.0041    1     163.281
156      0.0    1.0041    1     163.281
157      0.0    1.0115    1     162.979
158      0.0    1.0115    1     162.979
159      0.0    1.0041    1     162.677
160      0.0    1.0041    1     162.677
161      0.0    1.0115    1     162.375
162      0.0    1.0115    1     162.375
163      0.0    1.0041    1     162.073
164      0.0    1.0041    1     162.073
165      0.0    1.0115    1     161.771
166      0.0    1.0115    1     161.771
167      0.0    1.0041    1     161.470
168      0.0    1.0041    1     161.470
169      0.0    1.0115    1     161.168
170      0.0    1.0115    1     161.168
171      0.0    1.0041    1     160.866
172      0.0    1.0041    1     160.866
173      0.0    1.0115    1     160.564
174      0.0    1.0115    1     160.564
175      0.0    1.0041    1     160.262
176      0.0    1.0041    1     160.262
177      0.0    1.0115    1     159.960
178      0.0    1.0115    1     159.960
179      0.0    1.0041    1     159.659
180      0.0    1.0041    1     159.659
181      0.0    1.0115    1     159.357
182      0.0    1.0115    1     159.357
183      0.0    1.0041    1     159.055
184      0.0    1.0041    1     159.055
185      0.0    1.0115    1     158.753
186      0.0    1.0115    1     158.753
187      0.0    1.0041    1     158.451
188      0.0    1.0041    1     158.451
189      0.0    1.0115    1     158.149
190      0.0    1.0115    1     158.149
191      0.0    1.0041    1     157.848
192      0.0    1.0041    1     157.848
193      0.0    1.0115    1     157.546
194      0.0    1.0115    1     157.546
195      0.0    1.0041    1     157.244
196      0.0    1.0041    1     157.244
197      0.0    1.0115    1     156.942
198      0.0    1.0115    1     156.942
199      0.0    1.0041    1     156.640
200      0.0    1.0041    1     156.640
201      0.0    1.0115    1     156.338
202      0.0    1.0115    1     156.338
203      0.0    1.0041    1     156.037
204      0.0    1.0041    1     156.037
205      0.0    1.0115    1     155.735
206      0.0    1.0115    1     155.735
207      0.0    1.0041    1     155.433
208      0.0    1.0041    1     155.433
209      0.0    1.0115    1     155.131
210      0.0    1.0115    1     155.131
211      0.0    1.0041    1     154.829
212      0.0    1.0041    1     154.829
213      0.0    1.0115    1     154.527
214      0.0    1.0115    1     154.527
215      0.0    1.0041    1     154.226
216      0.0    1.0041    1     154.226
217      0.0    1.0115    1     153.924
218      0.0    1.0115    1     153.924
219      0.0    1.0041    1     153.622
220      0.0    1.0041    1     153.622
221      0.0    1.0115    1     153.320
222      0.0    1.0115    1     153.320
223      0.0    1.0041    1     153.018
224      0.0    1.0041    1     153.018
225      0.0    1.0115    1     152.717
226      0.0    1.0115    1     152.717
227      0.0    1.0041    1     152.415
228      0.0    1.0041    1     152.415
229      0.0    1.0115    1     152.113
230      0.0    1.0115    1     152.113
231      0.0    1.0041    1     151.811
232      0.0    1.0041    1     151.811
233      0.0    1.0115    1     151.509
234      0.0    1.0115    1     151.509
235      0.0    1.0041    1     151.207
236      0.0    1.0041    1     151.207
237      0.0    1.0115    1     150.906
238      0.0    1.0115    1     150.906
239      0.0    1.0041    1     150.604
240      0.0    1.0041    1     150.604
241      0.0    1.0115    1     150.302
242      0.0    1.0115    1     150.302
243      0.0    1.0415    1     171.128
244      0.0    1.0341    1     170.826
245      0.0    1.0415    1     170.525
246      0.0    1.0341    1     170.223
247      0.0    1.0415    1     169.921
248      0.0    1.0341    1     169.619
249      0.0    1.0415    1     169.317
250      0.0    1.0341    1     169.015
251      0.0    1.0415    1     168.714
252      0.0    1.0341    1     168.412
253      0.0    1.0415    1     168.110
254      0.0    1.0341    1     167.808
255      0.0    1.0415    1     167.506
256      0.0    1.0341    1     167.204
257      0.0    1.0415    1     166.903
258      0.0    1.0341    1     166.601
259      0.0    1.0415    1     166.299
260      0.0    1.0341    1     165.997
261      0.0    1.0415    1     165.695
262      0.0    1.0341    1     165.393
263      0.0    1.0341    1     165.092
264      0.0    1.0341    1     165.092
265      0.0    1.0415    1     164.790
266      0.0    1.0415    1     164.790
267      0.0    1.0341    1     164.488
268      0.0    1.0341    1     164.488
269      0.0    1.0415    1     164.186
270      0.0    1.0415    1     164.186
271      0.0    1.0341    1     163.884
272      0.0    1.0341    1     163.884
273      0.0    1.0415    1     163.582
274      0.0    1.0415    1     163.582
275      0.0    1.0341    1     163.281
276      0.0    1.0341    1     163.281
277      0.0    1.0415    1     162.979
278      0.0    1.0415    1     162.979
279      0.0    1.0341    1     162.677
280      0.0    1.0341    1     162.677
281      0.0    1.0415    1     162.375
282      0.0    1.0415    1     162.375
283      0.0    1.0341    1     162.073
284      0.0    1.0341    1     162.073
285      0.0    1.0415    1     161.771
286      0.0    1.0415    1     161.771
287      0.0    1.0341    1     161.470
288      0.0    1.0341    1     161.470
289      0.0    1.0415    1     161.168
290      0.0    1.0415    1     161.168
291      0.0    1.0341    1     160.866
292      0.0    1.0341    1     160.866
293      0.0    1.0415    1     160.564
294      0.0    1.0415    1     160.564
295      0.0    1.0341    1     160.262
296      0.0    1.0341    1     160.262
297      0.0    1.0415    1     159.960
298      0.0    1.0415    1     159.960
299      0.0    1.0341    1     159.659
300      0.0    1.0341    1     159.659
301      0.0    1.0415    1     159.357
302      0.0    1.0415    1     159.357
303      0.0    1.0341    1     159.055
304      0.0    1.0341    1     159.055
305      0.0    1.0415    1     158.753
306      0.0    1.0415    1     158.753
307      0.0    1.0341    1     158.451
308      0.0    1.0341    1     158.451
309      0.0    1.0415    1     158.149
310      0.0    1.0415    1     158.149
311      0.0    1.0341    1     157.848
312      0.0    1.0341    1     157.848
313      0.0    1.0415    1     157.546
314      0.0    1.0415    1     157.546
315      0.0    1.0341    1     157.244
316      0.0    1.0341    1     157.244
317      0.0    1.0415    1     156.942
318      0.0    1.0415    1     156.942
319      0.0    1.0341    1     156.640
320      0.0    1.0341    1     156.640
321      0.0    1.0415    1     156.338
322      0.0    1.0415    1     156.338
323      0.0    1.0341    1     156.037
324      0.0    1.0341    1     156.037
325      0.0    1.0415    1     155.735
326      0.0    1.0415    1     155.735
327      0.0    1.0341    1     155.433
328      0.0    1.0341    1     155.433
329      0.0    1.0415    1     155.131
330      0.0    1.0415    1     155.131
331      0.0    1.0341    1     154.829
332      0.0    1.0341    1     154.829
333      0.0    1.0415    1     154.527
334      0.0    1.0415    1     154.527
335      0.0    1.0341    1     154.226
336      0.0    1.0341    1     154.226
337      0.0    1.0415    1     153.924
338      0.0    1.0415    1     153.924
339      0.0    1.0341    1     153.622
340      0.0    1.0341    1     153.622
341      0.0    1.0415    1     153.320
342      0.0    1.0415    1     153.320
343      0.0    1.0341    1     153.018
344      0.0    1.0341    1     153.018
345      0.0    1.0415    1     152.717
346      0.0    1.0415    1     152.717
347      0.0    1.0341    1     152.415
348      0.0    1.0341    1     152.415
349      0.0    1.0415    1     152.113
350      0.0    1.0415    1     152.113
351      0.0    1.0341    1     151.811
352      0.0    1.0341    1     151.811
353      0.0    1.0415    1     151.509
354      0.0    1.0415    1     151.509
355      0.0    1.0341    1     151.207
356      0.0    1.0341    1     151.207
357      0.0    1.0415    1     150.906
358      0.0    1.0415    1     150.906
359      0.0    1.0341    1     150.604
360      0.0    1.0341    1     150.604
361      0.0    1.0415    1     150.302
362      0.0    1.0415    1     150.302
363      0.0    1.0115    1     171.128
364      0.0    1.0041    1     170.826
365      0.0    1.0115    1     170.525
366      0.0    1.0041    1     170.223
367      0.0    1.0115    1     169.921
368      0.0    1.0041    1     169.619
369      0.0    1.0115    1     169.317
370      0.0    1.0041    1     169.015
371      0.0    1.0115    1     168.714
372      0.0    1.0041    1     168.412
373      0.0    1.0115    1     168.110
374      0.0    1.0041    1     167.808
375      0.0    1.0115    1     167.506
376      0.0    1.0041    1     167.204
377      0.0    1.0115    1     166.903
378      0.0    1.0041    1     166.601
379      0.0    1.0115    1     166.299
380      0.0    1.0041    1     165.997
381      0.0    1.0115    1     165.695
382      0.0    1.0041    1     165.393
383      0.0    1.0041    1     165.092
384      0.0    1.0041    1     165.092
385      0.0    1.0115    1     164.790
386      0.0    1.0115    1     164.790
387      0.0    1.0041    1     164.488
388      0.0    1.0041    1     164.488
389      0.0    1.0115    1     164.186
390      0.0    1.0115    1     164.186
391      0.0    1.0041    1     163.884
392      0.0    1.0041    1     163.884
393      0.0    1.0115    1     163.582
394      0.0    1.0115    1     163.582
395      0.0    1.0041    1     163.281
396      0.0    1.0041    1     163.281
397      0.0    1.0115    1     162.979
398      0.0    1.0115    1     162.979
399      0.0    1.0041    1     162.677
400      0.0    1.0041    1     162.677
401      0.0    1.0115    1     162.375
402      0.0    1.0115    1     162.375
403      0.0    1.0041    1     162.073
404      0.0    1.0041    1     162.073
405      0.0    1.0115    1     161.771
406      0.0    1.0115    1     161.771
407      0.0    1.0041    1     161.470
408      0.0    1.0041    1     161.470
409      0.0    1.0115    1     161.168
410      0.0    1.0115    1     161.168
411      0.0    1.0041    1     160.866
412      0.0    1.0041    1     160.866
413      0.0    1.0115    1     160.564
414      0.0    1.0115    1     160.564
415      0.0    1.0041    1     160.262
416      0.0    1.0041    1     160.262
417      0.0    1.0115    1     159.960
418      0.0    1.0115    1     159.960
419      0.0    1.0041    1     159.659
420      0.0    1.0041    1     159.659
421      0.0    1.0115    1     159.357
422      0.0    1.0115    1     159.357
423      0.0    1.0041    1     159.055
424      0.0    1.0041    1     159.055
425      0.0    1.0115    1     158.753
426      0.0    1.0115    1     158.753
427      0.0    1.0041    1     158.451
428      0.0    1.0041    1     158.451
429      0.0    1.0115    1     158.149
430      0.0    1.0115    1     158.149
431      0.0    1.0041    1     157.848
432      0.0    1.0041    1     157.848
433      0.0    1.0115    1     157.546
434      0.0    1.0115    1     157.546
435      0.0    1.0041    1     157.244
436      0.0    1.0041    1     157.244
437      0.0    1.0115    1     156.942
438      0.0    1.0115    1     156.942
439      0.0    1.0041    1     156.640
440      0.0    1.0041    1     156.640
441      0.0    1.0115    1     156.338
442      0.0    1.0115    1     156.338
443      0.0    1.0041    1     156.037
444      0.0    1.0041    1     156.037
445      0.0    1.0115    1     155.735
446      0.0    1.0115    1     155.735
447      0.0    1.0041    1     155.433
448      0.0    1.0041    1     155.433
449      0.0    1.0115    1     155.131
450      0.0    1.0115    1     155.131
451      0.0    1.0041    1     154.829
452      0.0    1.0041    1     154.829
453      0.0    1.0115    1     154.527
454      0.0    1.0115    1     154.527
455      0.0    1.0041    1     154.226
456      0.0    1.0041    1     154.226
457      0.0    1.0115    1     153.924
458      0.0    1.0115    1     153.924
459      0.0    1.0041    1     153.622
460      0.0    1.0041    1     153.622
461      0.0    1.0115    1     153.320
462      0.0    1.0115    1     153.320
463      0.0    1.0041    1     153.018
464      0.0    1.0041    1     153.018
465      0.0    1.0115    1     152.717
466      0.0    1.0115    1     152.717
467      0.0    1.0041    1     152.415
468      0.0    1.0041    1     152.415
469      0.0    1.0115    1     152.113
470      0.0    1.0115    1     152.113
471      0.0    1.0041    1     151.811
472      0.0    1.0041    1     151.811
473      0.0    1.0115    1     151.509
474      0.0    1.0115    1     151.509
475      0.0    1.0041    1     151.207
476      0.0    1.0041    1     151.207
477      0.0    1.0115    1     150.906
478      0.0    1.0115    1     150.906
479      0.0    1.0041    1     150.604
480      0.0    1.0041    1     150.604
481      0.0    1.0115    1     150.302
482      0.0    1.0115    1     150.302
483      0.0    1.0115    1     171.128
484      0.0    1.0041    1     170.826
485      0.0    1.0115    1     170.525
486      0.0    1.0041    1     170.223
487      0.0    1.0115    1     169.921
488      0.0    1.0041    1     169.619
489      0.0    1.0115    1     169.317
490      0.0    1.0041    1     169.015
491      0.0    1.0115    1     168.714
492      0.0    1.0041    1     168.412
493      0.0    1.0115    1     168.110
494      0.0    1.0041    1     167.808
495      0.0    1.0115    1     167.506
496      0.0    1.0041    1     167.204
497      0.0    1.0115    1     166.903
498      0.0    1.0041    1     166.601
499      0.0    1.0115    1     166.299
500      0.0    1.0041    1     165.997
501      0.0    1.0115    1     165.695
502      0.0    1.0041    1     165.393
503      0.0    1.0041    1     165.092
504      0.0    1.0041    1     165.092
505      0.0    1.0115    1     164.790
506      0.0    1.0115    1     164.790
507      0.0    1.0041    1     164.488
508      0.0    1.0041    1     164.488
509      0.0    1.0115    1     164.186
510      0.0    1.0115    1     164.186
511      0.0    1.0041    1     163.884
512      0.0    1.0041    1     163.884
513      0.0    1.0115    1     163.582
514      0.0    1.0115    1     163.582
515      0.0    1.0041    1     163.281
516      0.0    1.0041    1     163.281
517      0.0    1.0115    1     162.979
518      0.0    1.0115    1     162.979
519      0.0    1.0041    1     162.677
520      0.0    1.0041    1     162.677
521      0.0    1.0115    1     162.375
522      0.0    1.0115    1     162.375
523      0.0    1.0041    1     162.073
524      0.0    1.0041    1     162.073
525      0.0    1.0115    1     161.771
526      0.0    1.0115    1     161.771
527      0.0    1.0041    1     161.470
528      0.0    1.0041    1     161.470
529      0.0    1.0115    1     161.168
530      0.0    1.0115    1     161.168
531      0.0    1.0041    1     160.866
532      0.0    1.0041    1     160.866
533      0.0    1.0115    1     160.564
534      0.0    1.0115    1     160.564
535      0.0    1.0041    1     160.262
536      0.0    1.0041    1     160.262
537      0.0    1.0115    1     159.960
538      0.0    1.0115    1     159.960
539      0.0    1.0041    1     159.659
540      0.0    1.0041    1     159.659
541      0.0    1.0115    1     159.357
542      0.0    1.0115    1     159.357
543      0.0    1.0041    1     159.055
544      0.0    1.0041    1     159.055
545      0.0    1.0115    1     158.753
546      0.0    1.0115    1     158.753
547      0.0    1.0041    1     158.451
548      0.0    1.0041    1     158.451
549      0.0    1.0115    1     158.149
550      0.0    1.0115    1     158.149
551      0.0    1.0041    1     157.848
552      0.0    1.0041    1     157.848
553      0.0    1.0115    1     157.546
554      0.0    1.0115    1     157.546
555      0.0    1.0041    1     157.244
556      0.0    1.0041    1     157.244
557      0.0    1.0115    1     156.942
558      0.0    1.0115    1     156.942
559      0.0    1.0041    1     156.640
560      0.0    1.0041    1     156.640
561      0.0    1.0115    1     156.338
562      0.0    1.0115    1     156.338
563      0.0    1.0041    1     156.037
564      0.0    1.0041    1     156.037
565      0.0    1.0115    1     155.735
566      0.0    1.0115    1     155.735
567      0.0    1.0041    1     155.433
568      0.0    1.0041    1     155.433
569      0.0    1.0115    1     155.131
570      0.0    1.0115    1     155.131
571      0.0    1.0041    1     154.829
572      0.0    1.0041    1     154.829
573      0.0    1.0115    1     154.527
574      0.0    1.0115    1     154.527
575      0.0    1.0041    1     154.226
576      0.0    1.0041    1     154.226
577      0.0    1.0115    1     153.924
578      0.0    1.0115    1     153.924
579      0.0    1.0041    1     153.622
580      0.0    1.0041    1     153.622
581      0.0    1.0115    1     153.320
582      0.0    1.0115    1     153.320
583      0.0    1.0041    1     153.018
584      0.0    1.0041    1     153.018
585      0.0    1.0115    1     152.717
586      0.0    1.0115    1     152.717
587      0.0    1.0041    1     152.415
588      0.0    1.0041    1     152.415
589      0.0    1.0115    1     152.113
590      0.0    1.0115    1     152.113
591      0.0    1.0041    1     151.811
592      0.0    1.0041    1     151.811
593      0.0    1.0115    1     151.509
594      0.0    1.0115    1     151.509
595      0.0    1.0041    1     151.207
596      0.0    1.0041    1     151.207
597      0.0    1.0115    1     150.906
598      0.0    1.0115    1     150.906
599      0.0    1.0041    1     150.604
600      0.0    1.0041    1     150.604
601      0.0    1.0115    1     150.302
602      0.0    1.0115    1     150.302
603      0.0    1.0115    1     171.128
604      0.0    1.0041    1     170.826
605      0.0    1.0115    1     170.525
606      0.0    1.0041    1     170.223
607      0.0    1.0115    1     169.921
608      0.0    1.0041    1     169.619
609      0.0    1.0115    1     169.317
610      0.0    1.0041    1     169.015
611      0.0    1.0115    1     168.714
612      0.0    1.0041    1     168.412
613      0.0    1.0115    1     168.110
614      0.0    1.0041    1     167.808
615      0.0    1.0115    1     167.506
616      0.0    1.0041    1     167.204
617      0.0    1.0115    1     166.903
618      0.0    1.0041    1     166.601
619      0.0    1.0115    1     166.299
620      0.0    1.0041    1     165.997
621      0.0    1.0115    1     165.695
622      0.0    1.0041    1     165.393
623      0.0    1.0041    1     165.092
624      0.0    1.0041    1     165.092
625      0.0    1.0115    1     164.790
626      0.0    1.0115    1     164.790
627      0.0    1.0041    1     164.488
628      0.0    1.0041    1     164.488
629      0.0    1.0115    1     164.186
630      0.0    1.0115    1     164.186
631      0.0    1.0041    1     163.884
632      0.0    1.0041    1     163.884
633      0.0    1.0115    1     163.582
634      0.0    1.0115    1     163.582
635      0.0    1.0041    1     163.281
636      0.0    1.0041    1     163.281
637      0.0    1.0115    1     162.979
638      0.0    1.0115    1     162.979
639      0.0    1.0041    1     162.677
640      0.0    1.0041    1     162.677
641      0.0    1.0115    1     162.375
642      0.0    1.0115    1     162.375
643      0.0    1.0041    1     162.073
644      0.0    1.0041    1     162.073
645      0.0    1.0115    1     161.771
646      0.0    1.0115    1     161.771
647      0.0    1.0041    1     161.470
648      0.0    1.0041    1     161.470
649      0.0    1.0115    1     161.168
650      0.0    1.0115    1     161.168
651      0.0    1.0041    1     160.866
652      0.0    1.0041    1     160.866
653      0.0    1.0115    1     160.564
654      0.0    1.0115    1     160.564
655      0.0    1.0041    1     160.262
656      0.0    1.0041    1     160.262
657      0.0    1.0115    1     159.960
658      0.0    1.0115    1     159.960
659      0.0    1.0041    1     159.659
660      0.0    1.0041    1     159.659
661      0.0    1.0115    1     159.357
662      0.0    1.0115    1     159.357
663      0.0    1.0041    1     159.055
664      0.0    1.0041    1     159.055
665      0.0    1.0115    1     158.753
666      0.0    1.0115    1     158.753
667      0.0    1.0041    1     158.451
668      0.0    1.0041    1     158.451
669      0.0    1.0115    1     158.149
670      0.0    1.0115    1     158.149
671      0.0    1.0041    1     157.848
672      0.0    1.0041    1     157.848
673      0.0    1.0115    1     157.546
674      0.0    1.0115    1     157.546
675      0.0    1.0041    1     157.244
676      0.0    1.0041    1     157.244
677      0.0    1.0115    1     156.942
678      0.0    1.0115    1     156.942
679      0.0    1.0041    1     156.640
680      0.0    1.0041    1     156.640
681      0.0    1.0115    1     156.338
682      0.0    1.0115    1     156.338
683      0.0    1.0041    1     156.037
684      0.0    1.0041    1     156.037
685      0.0    1.0115    1     155.735
686      0.0    1.0115    1     155.735
687      0.0    1.0041    1     155.433
688      0.0    1.0041    1     155.433
689      0.0    1.0115    1     155.131
690      0.0    1.0115    1     155.131
691      0.0    1.0041    1     154.829
692      0.0    1.0041    1     154.829
693      0.0    1.0115    1     154.527
694      0.0    1.0115    1     154.527
695      0.0    1.0041    1     154.226
696      0.0    1.0041    1     154.226
697      0.0    1.0115    1     153.924
698      0.0    1.0115    1     153.924
699      0.0    1.0041    1     153.622
700      0.0    1.0041    1     153.622
701      0.0    1.0115    1     153.320
702      0.0    1.0115    1     153.320
703      0.0    1.0041    1     153.018
704      0.0    1.0041    1     153.018
705      0.0    1.0115    1     152.717
706      0.0    1.0115    1     152.717
707      0.0    1.0041    1     152.415
708      0.0    1.0041    1     152.415
709      0.0    1.0115    1     152.113
710      0.0    1.0115    1     152.113
711      0.0    1.0041    1     151.811
712      0.0    1.0041    1     151.811
713      0.0    1.0115    1     151.509
714      0.0    1.0115    1     151.509
715      0.0    1.0041    1     151.207
716      0.0    1.0041    1     151.207
717      0.0    1.0115    1     150.906
718      0.0    1.0115    1     150.906
719      0.0    1.0041    1     150.604
720      0.0    1.0041    1     150.604
721      0.0    1.0115    1     150.302
722      0.0    1.0115    1     150.302
723      0.0    1.0115    1     171.128
724      0.0    1.0041    1     170.826
725      0.0    1.0115    1     170.525
726      0.0    1.0041    1     170.223
727      0.0    1.0115    1     169.921
728      0.0    1.0041    1     169.619
729      0.0    1.0115    1     169.317
730      0.0    1.0041    1     169.015
731      0.0    1.0115    1     168.714
732      0.0    1.0041    1     168.412
733      0.0    1.0115    1     168.110
734      0.0    1.0041    1     167.808
735      0.0    1.0115    1     167.506
736      0.0    1.0041    1     167.204
737      0.0    1.0115    1     166.903
738      0.0    1.0041    1     166.601
739      0.0    1.0115    1     166.299
740      0.0    1.0041    1     165.997
741      0.0    1.0115    1     165.695
742      0.0    1.0041    1     165.393
743      0.0    1.0041    1     165.092
744      0.0    1.0041    1     165.092
745      0.0    1.0115    1     164.790
746      0.0    1.0115    1     164.790
747      0.0    1.0041    1     164.488
748      0.0    1.0041    1     164.488
749      0.0    1.0115    1     164.186
750      0.0    1.0115    1     164.186
751      0.0    1.0041    1     163.884
752      0.0    1.0041    1     163.884
753      0.0    1.0115    1     163.582
754      0.0    1.0115    1     163.582
755      0.0    1.0041    1     163.281
756      0.0    1.0041    1     163.281
757      0.0    1.0115    1     162.979
758      0.0    1.0115    1     162.979
759      0.0    1.0041    1     162.677
760      0.0    1.0041    1     162.677
761      0.0    1.0115    1     162.375
762      0.0    1.0115    1     162.375
763      0.0    1.0041    1     162.073
764      0.0    1.0041    1     162.073
765      0.0    1.0115    1     161.771
766      0.0    1.0115    1     161.771
767      0.0    1.0041    1     161.470
768      0.0    1.0041    1     161.470
769      0.0    1.0115    1     161.168
770      0.0    1.0115    1     161.168
771      0.0    1.0041    1     160.866
772      0.0    1.0041    1     160.866
773      0.0    1.0115    1     160.564
774      0.0    1.0115    1     160.564
775      0.0    1.0041    1     160.262
776      0.0    1.0041    1     160.262
777      0.0    1.0115    1     159.960
778      0.0    1.0115    1     159.960
779      0.0    1.0041    1     159.659
780      0.0    1.0041    1     159.659
781      0.0    1.0115    1     159.357
782      0.0    1.0115    1     159.357
783      0.0    1.0041    1     159.055
784      0.0    1.0041    1     159.055
785      0.0    1.0115    1     158.753
786      0.0    1.0115    1     158.753
787      0.0    1.0041    1     158.451
788      0.0    1.0041    1     158.451
789      0.0    1.0115    1     158.149
790      0.0    1.0115    1     158.149
791      0.0    1.0041    1     157.848
792      0.0    1.0041    1     157.848
793      0.0    1.0115    1     157.546
794      0.0    1.0115    1     157.546
795      0.0    1.0041    1     157.244
796      0.0    1.0041    1     157.244
797      0.0    1.0115    1     156.942
798      0.0    1.0115    1     156.942
799      0.0    1.0041    1     156.640
800      0.0    1.0041    1     156.640
801      0.0    1.0115    1     156.338
802      0.0    1.0115    1     156.338
803      0.0    1.0041    1     156.037
804      0.0    1.0041    1     156.037
805      0.0    1.0115    1     155.735
806      0.0    1.0115    1     155.735
807      0.0    1.0041    1     155.433
808      0.0    1.0041    1     155.433
809      0.0    1.0115    1     155.131
810      0.0    1.0115    1     155.131
811      0.0    1.0041    1     154.829
812      0.0    1.0041    1     154.829
813      0.0    1.0115    1     154.527
814      0.0    1.0115    1     154.527
815      0.0    1.0041    1     154.226
816      0.0    1.0041    1     154.226
817      0.0    1.0115    1     153.924
818      0.0    1.0115    1     153.924
819      0.0    1.0041    1     153.622
820      0.0    1.0041    1     153.622
821      0.0    1.0115    1     153.320
822      0.0    1.0115    1     153.320
823      0.0    1.0041    1     153.018
824      0.0    1.0041    1     153.018
825      0.0    1.0115    1     152.717
826      0.0    1.0115    1     152.717
827      0.0    1.0041    1     152.415
828      0.0    1.0041    1     152.415
829      0.0    1.0115    1     152.113
830      0.0    1.0115    1     152.113
831      0.0    1.0041    1     151.811
832      0.0    1.0041    1     151.811
833      0.0    1.0115    1     151.509
834      0.0    1.0115    1     151.509
835      0.0    1.0041    1     151.207
836      0.0    1.0041    1     151.207
837      0.0    1.0115    1     150.906
838      0.0    1.0115    1     150.906
839      0.0    1.0041    1     150.604
840      0.0    1.0041    1     150.604
841      0.0    1.0115    1     150.302
842      0.0    1.0115    1     150.302
843      0.0    1.0115    1     171.128
844      0.0    1.0041    1     170.826
845      0.0    1.0115    1     170.525
846      0.0    1.0041    1     170.223
847      0.0    1.0115    1     169.921
848      0.0    1.0041    1     169.619
849      0.0    1.0115    1     169.317
850      0.0    1.0041    1     169.015
851      0.0    1.0115    1     168.714
852      0.0    1.0041    1     168.412
853      0.0    1.0115    1     168.110
854      0.0    1.0041    1     167.808
855      0.0    1.0115    1     167.506
856      0.0    1.0041    1     167.204
857      0.0    1.0115    1     166.903
858      0.0    1.0041    1     166.601
859      0.0    1.0115    1     166.299
860      0.0    1.0041    1     165.997
861      0.0    1.0115    1     165.695
862      0.0    1.0041    1     165.393
863      0.0    1.0041    1     165.092
864      0.0    1.0041    1     165.092
865      0.0    1.0115    1     164.790
866      0.0    1.0115    1     164.790
867      0.0    1.0041    1     164.488
868      0.0    1.0041    1     164.488
869      0.0    1.0115    1     164.186
870      0.0    1.0115    1     164.186
871      0.0    1.0041    1     163.884
872      0.0    1.0041    1     163.884
873      0.0    1.0115    1     163.582
874      0.0    1.0115    1     163.582
875      0.0    1.0041    1     163.281
876      0.0    1.0041    1     163.281
877      0.0    1.0115    1     162.979
878      0.0    1.0115    1     162.979
879      0.0    1.0041    1     162.677
880      0.0    1.0041    1     162.677
881      0.0    1.0115    1     162.375
882      0.0    1.0115    1     162.375
883      0.0    1.0041    1     162.073
884      0.0    1.0041    1     162.073
885      0.0    1.0115    1     161.771
886      0.0    1.0115    1     161.771
887      0.0    1.0041    1     161.470
888      0.0    1.0041    1     161.470
889      0.0    1.0115    1     161.168
890      0.0    1.0115    1     161.168
891      0.0    1.0041    1     160.866
892      0.0    1.0041    1     160.866
893      0.0    1.0115    1     160.564
894      0.0    1.0115    1     160.564
895      0.0    1.0041    1     160.262
896      0.0    1.0041    1     160.262
897      0.0    1.0115    1     159.960
898      0.0    1.0115    1     159.960
899      0.0    1.0041    1     159.659
900      0.0    1.0041    1     159.659
901      0.0    1.0115    1     159.357
902      0.0    1.0115    1     159.357
903      0.0    1.0041    1     159.055
904      0.0    1.0041    1     159.055
905      0.0    1.0115    1     158.753
906      0.0    1.0115    1     158.753
907      0.0    1.0041    1     158.451
908      0.0    1.0041    1     158.451
909      0.0    1.0115    1     158.149
910      0.0    1.0115    1     158.149
911      0.0    1.0041    1     157.848
912      0.0    1.0041    1     157.848
913      0.0    1.0115    1     157.546
914      0.0    1.0115    1     157.546
915      0.0    1.0041    1     157.244
916      0.0    1.0041    1     157.244
917      0.0    1.0115    1     156.942
918      0.0    1.0115    1     156.942
919      0.0    1.0041    1     156.640
920      0.0    1.0041    1     156.640
921      0.0    1.0115    1     156.338
922      0.0    1.0115    1     156.338
923      0.0    1.0041    1     156.037
924      0.0    1.0041    1     156.037
925      0.0    1.0115    1     155.735
926      0.0    1.0115    1     155.735
927      0.0    1.0041    1     155.433
928      0.0    1.0041    1     155.433
929      0.0    1.0115    1     155.131
930      0.0    1.0115    1     155.131
931      0.0    1.0041    1     154.829
932      0.0    1.0041    1     154.829
933      0.0    1.0115    1     154.527
934      0.0    1.0115    1     154.527
935      0.0    1.0041    1     154.226
936      0.0    1.0041    1     154.226
937      0.0    1.0115    1     153.924
938      0.0    1.0115    1     153.924
939      0.0    1.0041    1     153.622
940      0.0    1.0041    1     153.622
941      0.0    1.0115    1     153.320
942      0.0    1.0115    1     153.320
943      0.0    1.0041    1     153.018
944      0.0    1.0041    1     153.018
945      0.0    1.0115    1     152.717
946      0.0    1.0115    1     152.717
947      0.0    1.0041    1     152.415
948      0.0    1.0041    1     152.415
949      0.0    1.0115    1     152.113
950      0.0    1.0115    1     152.113
951      0.0    1.0041    1     151.811
952      0.0    1.0041    1     151.811
953      0.0    1.0115    1     151.509
954      0.0    1.0115    1     151.509
955      0.0    1.0041    1     151.207
956      0.0    1.0041    1     151.207
957      0.0    1.0115    1     150.906
958      0.0    1.0115    1     150.906
959      0.0    1.0041    1     150.604
960      0.0    1.0041    1     150.604
961      0.0    1.0115    1     150.302
962      0.0    1.0115    1     150.302
963      0.0    1.5825    1     148.000
964      0.0    1.5821    1     144.671
965      0.0    1.5825    1     141.342
966      0.0    1.5825    1     138.012
967      0.0    1.5821    1     134.683
968      0.0    1.5821    1     131.354
969      0.0    1.5825    1     128.024
970      0.0    1.5825    1     124.695
971      0.0    1.5821    1     121.366
972      0.0    1.5821    1     118.037
973      0.0    1.5825    1     114.707
974      0.0    1.5825    1     111.378
975      0.0    1.5821    1     108.049
976      0.0    1.5821    1     104.719
977      0.0    1.5825    1     101.390
978      0.0    1.5825    1      98.061
979      0.0    1.5821    1      94.732
980      0.0    1.5821    1      91.402
981      0.0    1.5825    1      88.073
982      0.0    1.5825    1      84.744
983      0.0    1.5821    1      81.415
984      0.0    1.5821    1      78.085
985      0.0    1.5825    1      74.756
986      0.0    1.5825    1      71.427
987      0.0    1.5821    1      68.098
988      0.0    1.5821    1      64.768
989      0.0    1.5825    1      61.439
990      0.0    1.5825    1      58.110
991      0.0    1.5821    1      54.781
992      0.0    1.5821    1      51.451
993      0.0    1.5825    1      48.122
994      0.0    1.5825    1      44.793
995      0.0    1.5821    1      41.463
996      0.0    1.5821    1      38.134
997      0.0    1.5825    1      34.805
998      0.0    1.5821    1      31.476
999      0.0    1.5821    1      28.146
1000     0.0    1.5825    1      24.817
1001     0.0    1.5825    1      21.488
1002     0.0    1.5821    1      18.159
1003     0.0    1.5821    1      14.829
1004     0.0    1.5825    1      11.500
1005     0.0    1.5825    1      11.500
1006     0.0    1.5821    1      11.500
1007     0.0    1.5821    1      11.500
1008     0.0    1.5825    1      11.500
1009     0.0    1.5825    1      11.500
1010     0.0    1.5821    1      11.500  
